#    Lambda nm Relative transmission
      300.000 9.57995e-006
      301.000 9.54339e-006
      302.000 9.42790e-006
      303.000 9.26771e-006
      304.000 9.14027e-006
      305.000 9.12960e-006
      306.000 2.72424e-005
      307.000 4.60226e-005
      308.000 4.63570e-005
      309.000 6.56195e-005
      310.000 8.59333e-005
      311.000  0.000961514
      312.000   0.00192770
      313.000   0.00292848
      314.000   0.00389293
      315.000   0.00479394
      316.000    0.0113707
      317.000    0.0178170
      318.000    0.0232271
      319.000    0.0294619
      320.000    0.0356858
      321.000    0.0501657
      322.000    0.0661402
      323.000    0.0823792
      324.000    0.0983283
      325.000     0.116251
      326.000     0.139367
      327.000     0.163524
      328.000     0.187526
      329.000     0.210592
      330.000     0.234558
      331.000     0.257778
      332.000     0.279246
      333.000     0.301546
      334.000     0.323329
      335.000     0.343671
      336.000     0.362361
      337.000     0.381259
      338.000     0.399270
      339.000     0.417790
      340.000     0.440201
      341.000     0.456982
      342.000     0.472935
      343.000     0.487314
      344.000     0.509625
      345.000     0.527564
      346.000     0.538346
      347.000     0.547805
      348.000     0.560411
      349.000     0.568789
      350.000     0.578562
      351.000     0.579652
      352.000     0.585632
      353.000     0.589945
      354.000     0.594344
      355.000     0.597774
      356.000     0.601065
      357.000     0.601805
      358.000     0.608576
      359.000     0.615637
      360.000     0.620158
      361.000     0.619207
      362.000     0.619290
      363.000     0.622476
      364.000     0.622784
      365.000     0.620572
      366.000     0.613533
      367.000     0.607033
      368.000     0.605173
      369.000     0.596062
      370.000     0.586976
      371.000     0.573339
      372.000     0.554623
      373.000     0.542629
      374.000     0.524412
      375.000     0.512072
      376.000     0.483924
      377.000     0.457340
      378.000     0.433418
      379.000     0.412619
      380.000     0.386489
      381.000     0.358580
      382.000     0.329350
      383.000     0.299804
      384.000     0.268450
      385.000     0.236507
      386.000     0.211069
      387.000     0.183251
      388.000     0.155208
      389.000     0.128892
      390.000     0.100696
      391.000    0.0855627
      392.000    0.0709188
      393.000    0.0558230
      394.000    0.0408379
      395.000    0.0258134
      396.000    0.0208260
      397.000    0.0168374
      398.000    0.0119053
      399.000   0.00792855
      400.000   0.00297441
      401.000   0.00297143
      402.000   0.00198700
      403.000   0.00198998
      404.000  0.000796397
      405.000  0.000199968
      406.000  0.000100047
      407.000  0.000100194
      408.000 8.00751e-005
      409.000 4.01039e-005
      410.000 1.00503e-005
      411.000 1.00095e-005
      412.000 1.00128e-005
      413.000 1.00067e-005
      414.000 9.97398e-006
      415.000 9.92020e-006
      416.000 9.88237e-006
      417.000 9.85500e-006
      418.000 9.81591e-006
      419.000 9.78273e-006
      420.000 9.72556e-006
      421.000 9.66502e-006
      422.000 9.68488e-006
      423.000 9.62423e-006
      424.000 9.59284e-006
      425.000 9.60225e-006
      426.000 9.58333e-006
      427.000 9.57900e-006
      428.000 9.59749e-006
      429.000 9.61017e-006
      430.000 9.64420e-006
      431.000 9.66808e-006
      432.000 9.66216e-006
      433.000 9.70622e-006
      434.000 9.72725e-006
      435.000 9.81179e-006
      436.000 9.81770e-006
      437.000 9.88892e-006
      438.000 9.88744e-006
      439.000 9.92559e-006
      440.000 9.95465e-006
      441.000 9.98149e-006
      442.000 1.00046e-005
      443.000 9.98740e-006
      444.000 9.99702e-006
      445.000 9.99015e-006
      446.000 9.98223e-006
      447.000 9.96574e-006
      448.000 9.95348e-006
      449.000 9.93394e-006
      450.000 9.88649e-006
      451.000 9.85606e-006
      452.000 9.81929e-006
      453.000 9.77311e-006
      454.000 9.74743e-006
      455.000 9.72556e-006
      456.000 9.69524e-006
      457.000 9.65889e-006
      458.000 9.64209e-006
      459.000 9.66195e-006
      460.000 9.65329e-006
      461.000 9.63532e-006
      462.000 9.63194e-006
      463.000 9.64113e-006
      464.000 9.67484e-006
      465.000 9.69302e-006
      466.000 9.69767e-006
      467.000 9.73666e-006
      468.000 9.77089e-006
      469.000 9.76783e-006
      470.000 9.82838e-006
      471.000 9.81950e-006
      472.000 9.86261e-006
      473.000 9.88311e-006
      474.000 9.89843e-006
      475.000 9.94133e-006
      476.000 9.96458e-006
      477.000 9.97229e-006
      478.000 9.97811e-006
      479.000 1.00187e-005
      480.000 1.00109e-005
      481.000 1.00198e-005
      482.000 1.00327e-005
      483.000 1.00201e-005
      484.000 1.00066e-005
      485.000 9.99755e-006
      486.000 1.00110e-005
      487.000 1.00284e-005
      488.000 1.00051e-005
      489.000 9.98835e-006
      490.000 1.00022e-005
      491.000 9.94820e-006
      492.000 9.94609e-006
      493.000 9.94345e-006
      494.000 9.94292e-006
      495.000 9.95930e-006
      496.000 9.95158e-006
      497.000 9.94450e-006
      498.000 9.95296e-006
      499.000 9.96268e-006
      500.000 9.95042e-006
      501.000 9.94915e-006
      502.000 9.94292e-006
      503.000 9.97990e-006
      504.000 9.94810e-006
      505.000 9.97335e-006
      506.000 9.95063e-006
      507.000 9.95465e-006
      508.000 9.95116e-006
      509.000 9.94250e-006
      510.000 9.94514e-006
      511.000 9.93732e-006
      512.000 9.88861e-006
      513.000 9.88374e-006
      514.000 9.87107e-006
      515.000 9.83081e-006
      516.000 9.80862e-006
      517.000 9.79689e-006
      518.000 9.76994e-006
      519.000 9.74913e-006
      520.000 9.72176e-006
      521.000 9.69693e-006
      522.000 9.64663e-006
      523.000 9.64050e-006
      524.000 9.61017e-006
      525.000 9.59612e-006
      526.000 9.55998e-006
      527.000 9.55354e-006
      528.000 9.55428e-006
      529.000 9.52997e-006
      530.000 9.52839e-006
      531.000 9.52490e-006
      532.000 9.53895e-006
      533.000 9.54212e-006
      534.000 9.55322e-006
      535.000 9.58682e-006
      536.000 9.61472e-006
      537.000 9.63849e-006
      538.000 9.64737e-006
      539.000 9.69767e-006
      540.000 9.70031e-006
      541.000 9.77322e-006
      542.000 9.79530e-006
      543.000 9.81305e-006
      544.000 9.86240e-006
      545.000 9.89505e-006
      546.000 9.91692e-006
      547.000 9.95010e-006
      548.000 9.99184e-006
      549.000 9.99184e-006
      550.000 9.97641e-006
      551.000 1.00018e-005
      552.000 9.98497e-006
      553.000 9.98603e-006
      554.000 9.94598e-006
      555.000 9.93394e-006
      556.000 9.84676e-006
      557.000 9.80524e-006
      558.000 9.71563e-006
      559.000 9.64092e-006
      560.000 9.59675e-006
      561.000 9.48010e-006
      562.000 9.38183e-006
      563.000 9.26443e-006
      564.000 9.15148e-006
      565.000 9.05204e-006
      566.000 8.93803e-006
      567.000 8.83691e-006
      568.000 8.74677e-006
      569.000 8.61310e-006
      570.000 8.53459e-006
      571.000 8.43537e-006
      572.000 8.37398e-006
      573.000 8.26557e-006
      574.000 8.20555e-006
      575.000 8.14320e-006
      576.000 8.05085e-006
      577.000 8.01038e-006
      578.000 7.98227e-006
      579.000 7.94952e-006
      580.000 7.93335e-006
      581.000 7.93557e-006
      582.000 7.92722e-006
      583.000 7.96103e-006
      584.000 7.99886e-006
      585.000 8.02042e-006
      586.000 8.10157e-006
      587.000 8.17247e-006
      588.000 8.25532e-006
      589.000 8.35411e-006
      590.000 8.45344e-006
      591.000 8.54928e-006
      592.000 8.66657e-006
      593.000 8.83173e-006
      594.000 8.95694e-006
      595.000 9.13129e-006
      596.000 9.26443e-006
      597.000 9.38584e-006
      598.000 9.49965e-006
      599.000 9.65117e-006
      600.000 9.76825e-006
      601.000 9.78801e-006
      602.000 9.79974e-006
      603.000 9.80566e-006
      604.000 9.72366e-006
      605.000 9.62476e-006
      606.000 9.45273e-006
      607.000 9.23432e-006
      608.000 8.97818e-006
      609.000 8.64945e-006
      610.000 8.28480e-006
      611.000 7.88665e-006
      612.000 7.44284e-006
      613.000 7.03455e-006
      614.000 6.61220e-006
      615.000 6.17918e-006
      616.000 5.73707e-006
      617.000 5.32898e-006
      618.000 4.95883e-006
      619.000 4.59037e-006
      620.000 4.22445e-006
      621.000 3.90428e-006
      622.000 3.60968e-006
      623.000 3.33769e-006
      624.000 3.08843e-006
      625.000 2.85680e-006
      626.000 2.63522e-006
      627.000 2.44787e-006
      628.000 2.26771e-006
      629.000 2.10932e-006
      630.000 1.95832e-006
      631.000 1.82370e-006
      632.000 1.70567e-006
      633.000 1.59536e-006
      634.000 1.47912e-006
      635.000 1.39903e-006
      636.000 1.31872e-006
      637.000 1.22774e-006
      638.000 1.16751e-006
      639.000 1.09893e-006
      640.000 1.04165e-006
      641.000 9.81157e-007
      642.000 9.27986e-007
      643.000 8.84324e-007
      644.000 8.36489e-007
      645.000 8.00943e-007
      646.000 7.61043e-007
      647.000 7.28889e-007
      648.000 7.00739e-007
      649.000 6.63280e-007
      650.000 6.37392e-007
      651.000 6.13585e-007
      652.000 5.88902e-007
      653.000 5.63024e-007
      654.000 5.44606e-007
      655.000 5.27594e-007
      656.000 5.06872e-007
      657.000 9.82785e-007
      658.000 1.42098e-006
      659.000 1.38088e-006
      660.000 1.77803e-006
      661.000 2.58888e-006
      662.000 3.81047e-006
      663.000 4.13484e-006
      664.000 3.95077e-006
      665.000 3.88293e-006
      666.000 7.54291e-006
      667.000 1.11178e-005
      668.000 1.42726e-005
      669.000 1.42536e-005
      670.000 1.75190e-005
      671.000 2.03888e-005
      672.000 2.33838e-005
      673.000 2.97112e-005
      674.000 2.90255e-005
      675.000 3.19293e-005
      676.000 3.15373e-005
      677.000 3.09603e-005
      678.000 6.17178e-005
      679.000 6.06886e-005
      680.000 5.93255e-005
      681.000 5.90825e-005
      682.000 5.92790e-005
      683.000 5.77807e-005
      684.000 5.79201e-005
      685.000 5.67261e-005
      686.000 5.65718e-005
      687.000 5.53060e-005
      688.000 8.43632e-005
      689.000 8.34883e-005
      690.000 8.34630e-005
      691.000 8.22742e-005
      692.000 8.40399e-005
      693.000 8.13612e-005
      694.000 8.12122e-005
      695.000 8.19033e-005
      696.000 8.25088e-005
      697.000 5.37526e-005
      698.000 5.42831e-005
      699.000 5.54285e-005
      700.000 5.41669e-005
      701.000 5.47248e-005
      702.000 5.50143e-005
      703.000 5.53207e-005
      704.000 5.55046e-005
      705.000 5.50354e-005
      706.000 5.53567e-005
      707.000 5.67324e-005
      708.000 5.67451e-005
      709.000 2.88586e-005
      710.000 2.91883e-005
      711.000 2.94493e-005
      712.000 2.96945e-005
      713.000 3.01108e-005
      714.000 3.06983e-005
      715.000 3.06993e-005
      716.000 3.07649e-005
      717.000 3.15616e-005
      718.000 2.93488e-005
      719.000 2.90312e-005
      720.000 2.66796e-005
      721.000 2.66525e-005
      722.000 2.41361e-005
      723.000 2.38631e-005
      724.000 2.07584e-005
      725.000 1.80289e-005
      726.000 1.85012e-005
      727.000 1.48369e-005
      728.000 1.11866e-005
      729.000 1.15854e-005
      730.000 8.16592e-006
      731.000 8.08710e-006
      732.000 8.30096e-006
      733.000 8.63804e-006
      734.000 8.87600e-006
      735.000 8.98273e-006
      736.000 9.23168e-006
      737.000 9.46224e-006
      738.000 9.78199e-006
      739.000 4.87895e-006
      740.000 5.06439e-006
      741.000 5.24973e-006
      742.000 5.33944e-006
      743.000 5.03383e-006
      744.000 5.19950e-006
      745.000 4.86489e-006
      746.000 4.46478e-006
      747.000 3.95369e-006
      748.000 3.99426e-006
      749.000 3.35851e-006
      750.000 2.70262e-006
      751.000 2.75566e-006
      752.000 2.07784e-006
      753.000 2.24433e-006
      754.000 2.34777e-006
      755.000 1.65943e-006
      756.000 1.75100e-006
      757.000 1.77628e-006
      758.000 9.23781e-007
      759.000 9.70876e-007
      760.000 1.02946e-006
      761.000 1.06523e-006
      762.000 1.09069e-006
      763.000 1.14279e-006
      764.000 1.19889e-006
      765.000 1.23598e-006
      766.000 1.30129e-006
      767.000 1.36257e-006
      768.000 1.41414e-006
      769.000 1.49180e-006
      770.000 1.54738e-006
      771.000 1.64523e-006
      772.000 1.72448e-006
      773.000 1.79485e-006
      774.000 1.87749e-006
      775.000 1.99192e-006
      776.000 2.10013e-006
      777.000 2.17990e-006
      778.000 2.31484e-006
      779.000 2.45189e-006
      780.000 2.55513e-006
      781.000 2.69101e-006
      782.000 2.81433e-006
      783.000 2.99459e-006
      784.000 3.12340e-006
      785.000 3.28676e-006
      786.000 3.49281e-006
      787.000 3.72369e-006
      788.000 3.85134e-006
      789.000 4.05274e-006
      790.000 4.29271e-006
      791.000 4.52423e-006
      792.000 4.66339e-006
      793.000 4.96655e-006
      794.000 5.24138e-006
      795.000 5.44310e-006
      796.000 5.64799e-006
      797.000 5.95326e-006
      798.000 6.23053e-006
      799.000 6.52354e-006
      800.000 6.65341e-006
      801.000 9.84064e-006
      802.000 9.84064e-006
      803.000 9.84064e-006
      804.000 9.84064e-006
      805.000 9.84064e-006
      806.000 9.84064e-006
      807.000 9.84064e-006
      808.000 9.84064e-006
      809.000 9.84064e-006
      810.000 9.84064e-006
      811.000 9.84064e-006
      812.000 9.84064e-006
      813.000 9.84064e-006
      814.000 9.84064e-006
      815.000 9.84064e-006
      816.000 9.84064e-006
      817.000 9.84064e-006
      818.000 9.84064e-006
      819.000 9.84064e-006
      820.000 9.84064e-006
      821.000 9.84064e-006
      822.000 9.84064e-006
      823.000 9.84064e-006
      824.000 9.84064e-006
      825.000 9.84064e-006
      826.000 9.84064e-006
      827.000 9.84064e-006
      828.000 9.84064e-006
      829.000 9.84064e-006
      830.000 9.84064e-006
      831.000 9.84064e-006
      832.000 9.84064e-006
      833.000 9.84064e-006
      834.000 9.84064e-006
      835.000 9.84064e-006
      836.000 9.84064e-006
      837.000 9.84064e-006
      838.000 9.84064e-006
      839.000 9.84064e-006
      840.000 9.84064e-006
      841.000 9.84064e-006
      842.000 9.84064e-006
      843.000 9.84064e-006
      844.000 9.84064e-006
      845.000 9.84064e-006
      846.000 9.84064e-006
      847.000 9.84064e-006
      848.000 9.84064e-006
      849.000 9.84064e-006
      850.000 9.84064e-006
      851.000 9.84064e-006
      852.000 9.84064e-006
      853.000 9.84064e-006
      854.000 9.84064e-006
      855.000 9.84064e-006
      856.000 9.84064e-006
      857.000 9.84064e-006
      858.000 9.84064e-006
      859.000 9.84064e-006
      860.000 9.84064e-006
      861.000 9.84064e-006
      862.000 9.84064e-006
      863.000 9.84064e-006
      864.000 9.84064e-006
      865.000 9.84064e-006
      866.000 9.84064e-006
      867.000 9.84064e-006
      868.000 9.84064e-006
      869.000 9.84064e-006
      870.000 9.84064e-006
      871.000 9.84064e-006
      872.000 9.84064e-006
      873.000 9.84064e-006
      874.000 9.84064e-006
      875.000 9.84064e-006
      876.000 9.84064e-006
      877.000 9.84064e-006
      878.000 9.84064e-006
      879.000 9.84064e-006
      880.000 9.84064e-006
      881.000 9.84064e-006
      882.000 9.84064e-006
      883.000 9.84064e-006
      884.000 9.84064e-006
      885.000 9.84064e-006
      886.000 9.84064e-006
      887.000 9.84064e-006
      888.000 9.84064e-006
      889.000 9.84064e-006
      890.000 9.84064e-006
      891.000 9.84064e-006
      892.000 9.84064e-006
      893.000 9.84064e-006
      894.000 9.84064e-006
      895.000 9.84064e-006
      896.000 9.84064e-006
      897.000 9.84064e-006
      898.000 9.84064e-006
      899.000 9.84064e-006
      900.000 9.84064e-006
      901.000 9.84064e-006
      902.000 9.84064e-006
      903.000 9.84064e-006
      904.000 9.84064e-006
      905.000 9.84064e-006
      906.000 9.84064e-006
      907.000 9.84064e-006
      908.000 9.84064e-006
      909.000 9.84064e-006
      910.000 9.84064e-006
      911.000 9.84064e-006
      912.000 9.84064e-006
      913.000 9.84064e-006
      914.000 9.84064e-006
      915.000 9.84064e-006
      916.000 9.84064e-006
      917.000 9.84064e-006
      918.000 9.84064e-006
      919.000 9.84064e-006
      920.000 9.84064e-006
      921.000 9.84064e-006
      922.000 9.84064e-006
      923.000 9.84064e-006
      924.000 9.84064e-006
      925.000 9.84064e-006
      926.000 9.84064e-006
      927.000 9.84064e-006
      928.000 9.84064e-006
      929.000 9.84064e-006
      930.000 9.84064e-006
      931.000 9.84064e-006
      932.000 9.84064e-006
      933.000 9.84064e-006
      934.000 9.84064e-006
      935.000 9.84064e-006
      936.000 9.84064e-006
      937.000 9.84064e-006
      938.000 9.84064e-006
      939.000 9.84064e-006
      940.000 9.84064e-006
      941.000 9.84064e-006
      942.000 9.84064e-006
      943.000 9.84064e-006
      944.000 9.84064e-006
      945.000 9.84064e-006
      946.000 9.84064e-006
      947.000 9.84064e-006
      948.000 9.84064e-006
      949.000 9.84064e-006
      950.000 9.84064e-006
      951.000 9.84064e-006
      952.000 9.84064e-006
      953.000 9.84064e-006
      954.000 9.84064e-006
      955.000 9.84064e-006
      956.000 9.84064e-006
      957.000 9.84064e-006
      958.000 9.84064e-006
      959.000 9.84064e-006
      960.000 9.84064e-006
      961.000 9.84064e-006
      962.000 9.84064e-006
      963.000 9.84064e-006
      964.000 9.84064e-006
      965.000 9.84064e-006
      966.000 9.84064e-006
      967.000 9.84064e-006
      968.000 9.84064e-006
      969.000 9.84064e-006
      970.000 9.84064e-006
      971.000 9.84064e-006
      972.000 9.84064e-006
      973.000 9.84064e-006
      974.000 9.84064e-006
      975.000 9.84064e-006
      976.000 9.84064e-006
      977.000 9.84064e-006
      978.000 9.84064e-006
      979.000 9.84064e-006
      980.000 9.84064e-006
      981.000 9.84064e-006
      982.000 9.84064e-006
      983.000 9.84064e-006
      984.000 9.84064e-006
      985.000 9.84064e-006
      986.000 9.84064e-006
      987.000 9.84064e-006
      988.000 9.84064e-006
      989.000 9.84064e-006
      990.000 9.84064e-006
      991.000 9.84064e-006
      992.000 9.84064e-006
      993.000 9.84064e-006
      994.000 9.84064e-006
      995.000 9.84064e-006
      996.000 9.84064e-006
      997.000 9.84064e-006
      998.000 9.84064e-006
      999.000 9.84064e-006
      1000.00 9.84064e-006
      1001.00 9.84064e-006
      1002.00 9.84064e-006
      1003.00 9.84064e-006
      1004.00 9.84064e-006
      1005.00 9.84064e-006
      1006.00 9.84064e-006
      1007.00 9.84064e-006
      1008.00 9.84064e-006
      1009.00 9.84064e-006
      1010.00 9.84064e-006
      1011.00 9.84064e-006
      1012.00 9.84064e-006
      1013.00 9.84064e-006
      1014.00 9.84064e-006
      1015.00 9.84064e-006
      1016.00 9.84064e-006
      1017.00 9.84064e-006
      1018.00 9.84064e-006
      1019.00 9.84064e-006
      1020.00 9.84064e-006
      1021.00 9.84064e-006
      1022.00 9.84064e-006
      1023.00 9.84064e-006
      1024.00 9.84064e-006
      1025.00 9.84064e-006
      1026.00 9.84064e-006
      1027.00 9.84064e-006
      1028.00 9.84064e-006
      1029.00 9.84064e-006
      1030.00 9.84064e-006
      1031.00 9.84064e-006
      1032.00 9.84064e-006
      1033.00 9.84064e-006
      1034.00 9.84064e-006
      1035.00 9.84064e-006
      1036.00 9.84064e-006
      1037.00 9.84064e-006
      1038.00 9.84064e-006
      1039.00 9.84064e-006
      1040.00 9.84064e-006
      1041.00 9.84064e-006
      1042.00 9.84064e-006
      1043.00 9.84064e-006
      1044.00 9.84064e-006
      1045.00 9.84064e-006
      1046.00 9.84064e-006
      1047.00 9.84064e-006
      1048.00 9.84064e-006
      1049.00 9.84064e-006
      1050.00 9.84064e-006
      1051.00 9.84064e-006
      1052.00 9.84064e-006
      1053.00 9.84064e-006
      1054.00 9.84064e-006
      1055.00 9.84064e-006
      1056.00 9.84064e-006
      1057.00 9.84064e-006
      1058.00 9.84064e-006
      1059.00 9.84064e-006
      1060.00 9.84064e-006
      1061.00 9.84064e-006
      1062.00 9.84064e-006
      1063.00 9.84064e-006
      1064.00 9.84064e-006
      1065.00 9.84064e-006
      1066.00 9.84064e-006
      1067.00 9.84064e-006
      1068.00 9.84064e-006
      1069.00 9.84064e-006
      1070.00 9.84064e-006
      1071.00 9.84064e-006
      1072.00 9.84064e-006
      1073.00 9.84064e-006
      1074.00 9.84064e-006
      1075.00 9.84064e-006
      1076.00 9.84064e-006
      1077.00 9.84064e-006
      1078.00 9.84064e-006
      1079.00 9.84064e-006
      1080.00 9.84064e-006
      1081.00 9.84064e-006
      1082.00 9.84064e-006
      1083.00 9.84064e-006
      1084.00 9.84064e-006
      1085.00 9.84064e-006
      1086.00 9.84064e-006
      1087.00 9.84064e-006
      1088.00 9.84064e-006
      1089.00 9.84064e-006
      1090.00 9.84064e-006
      1091.00 1.96813e-005
      1092.00 1.96813e-005
      1093.00 1.96813e-005
      1094.00 1.96813e-005
      1095.00 1.96813e-005
      1096.00 1.96813e-005
      1097.00 1.96813e-005
      1098.00 1.96813e-005
      1099.00 1.96813e-005
      1100.00 1.96813e-005
